# phi/Â° I/nA
000 286
010 508
020 910
030 1370
040 1760
050 2680
060 2800
070 3300
080 3180
090 3100
100 2420
110 1720
120 1220
130 780
140 376
150 127
160 11.2
170 29.7
180 144
190 365
200 680
210 1100
220 1280
230 1930
240 2170
250 2850
260 2900
270 2630
280 2400
290 1850
300 1280
310 830
320 480
330 159
340 16.4
350 32.2
360 250
